  day sst(K) H(W/m2) LE(W/m2) TAU(m2/s2)
   205.250    300.972     12.357    190.179      0.115
   205.500    300.984     16.901    219.811      0.107
   205.750    300.064     18.363    232.096      0.118
   206.000    301.297     11.207    174.978      0.118
   206.250    301.231      0.401    120.849      0.137
   206.500    301.056      9.973    132.768      0.126
   206.750    300.763      7.712    177.439      0.064
   207.000    299.347     16.660    160.268      0.060
   207.250    300.745      8.125    160.185      0.113
   207.500    300.586      8.250    109.047      0.115
   207.750    300.525      8.243    113.590      0.108
   208.000    301.360     13.361    110.638      0.073
   208.250    301.233      5.462     93.681      0.051
   208.500    300.622      8.632     94.609      0.026
   208.750    300.376      7.170    100.120      0.070
   209.000    301.367      5.276     68.480      0.032
   209.250    300.683      5.732     91.650      0.017
   209.500    300.361      9.526    114.074      0.023
   209.750    299.659      3.000     83.073      0.012
   210.000    302.171      9.632     85.874      0.005
   210.250    300.749      6.746     85.844      0.023
   210.500    299.228      6.538     61.728      0.000
   210.750    299.869      6.149     66.835      0.002
   211.000    299.848      9.651     72.855      0.001
   211.250    300.484      5.099     51.617      0.010
   211.500    299.543      5.076     44.064      0.002
   211.750    299.913      6.037     68.902      0.012
   212.000    302.713     43.143    101.016      0.004
   212.250    301.818     23.733     52.611      0.007
   212.500    299.324      4.252     29.401      0.004
   212.750    299.889     11.335     58.288      0.007
   213.000    302.710     27.033     78.979      0.028
   213.250    301.281     13.590     79.048      0.016
   213.500    300.005      8.500     78.026      0.049
   213.750    300.397     10.548     74.457      0.026
   214.000    301.673     35.936     84.328      0.009
   214.250    301.466     28.195     89.394      0.000
   214.500    300.464      3.410     72.193      0.009
   214.750    300.629      6.718     77.139      0.021
   215.000    301.695     14.349     89.105      0.044
   215.250    301.388     12.487    108.076      0.035
   215.500    300.702      9.209     68.735      0.058
   215.750    300.596     11.673     57.660      0.058
   216.000    301.696      9.083     68.236      0.052
   216.250    301.421      7.398     64.976      0.045
   216.500    300.922      9.817     81.848      0.040
   216.750    300.678     11.412     92.096      0.034
   217.000    301.883     11.210     92.640      0.028
   217.250    301.575      9.296     68.940      0.028
   217.500    300.617      5.382     65.331      0.069
   217.750    300.201     12.825     76.263      0.050
   218.000    301.510      7.553     55.116      0.030
   218.250    301.056     12.493     78.962      0.039
   218.500    300.522      9.343     75.681      0.040
   218.750    300.553      7.981     69.410      0.016
   219.000    301.653      8.261     59.749      0.015
   219.250    301.335      8.929     85.524      0.010
   219.500    300.684     11.206     67.607      0.017
   219.750    300.655      9.414    139.281      0.026
   220.000    302.073      8.376     80.198      0.020
   220.250    301.957      7.853     72.905      0.025
   220.500    300.796     11.849     80.145      0.032
   220.750    300.858     12.400     91.614      0.025
   221.000    302.057     11.822     78.539      0.034
   221.250    301.746      7.087    105.995      0.070
   221.500    300.870      9.845     87.817      0.092
   221.750    301.052     14.271     77.064      0.114
   222.000    301.942     12.775     45.265      0.097
   222.250    301.531      7.957     59.028      0.040
   222.500    300.446     13.784     79.184      0.033
   222.750    300.190     11.051     63.403      0.006
   223.000    301.677     36.883    101.103      0.003
   223.250    301.401     12.998     63.552      0.006
   223.500    300.553      0.251     22.863      0.001
   223.750    300.392     13.703     69.608      0.023
   224.000    299.340     18.842     83.943      0.017
   224.250    299.698      7.079     56.071      0.004
   224.500    299.872     10.765     78.020      0.016
   224.750    300.220     11.065     84.368      0.022
   225.000    300.740     17.621     94.412      0.029
   225.250    300.504      5.644     97.401      0.049
   225.500    300.328     10.353     66.879      0.059
   225.750    300.766     15.191     99.691      0.083
   226.000    301.887     12.613    117.238      0.076
   226.250    301.511      7.300     80.572      0.045
   226.500    300.771      4.804     64.242      0.022
   226.750    300.799      9.097     67.923      0.018
   227.000    301.957     12.592     90.983      0.015
   227.250    301.432     12.162    100.520      0.014
   227.500    299.872     31.218    101.996      0.058
   227.750    300.098     23.539     97.936      0.056
   228.000    302.018     11.498     44.621      0.001
   228.250    301.390      9.191     61.804      0.004
   228.500    300.077     18.981     97.981      0.050
   228.750    300.194     13.274     85.427      0.021
   229.000    301.987      9.239     85.346      0.025
   229.250    301.435     12.223     80.834      0.029
   229.500    300.537      6.023     71.331      0.033
   229.750    300.722     10.955     84.733      0.047
   230.000    301.118     14.610     78.474      0.033
   230.250    300.863     15.814     84.792      0.036
   230.500    300.057      8.861     88.907      0.029
   230.750    300.386     11.444     55.735      0.023
   231.000    302.404     11.161     75.272      0.031
   231.250    301.778     12.700     77.894      0.031
   231.500    300.362      6.098     61.364      0.015
   231.750    300.068      8.833     59.591      0.005
   232.000    300.966     22.870     74.376      0.004
   232.250    299.730     10.536     53.949      0.000
   232.500    299.609      2.338     25.407      0.000
   232.750    300.034     13.968     52.848      0.000
   233.000    302.734     17.955     53.484      0.001
   233.250    303.498      7.965     71.568      0.004
   233.500    300.703      7.591     71.169      0.017
   233.750    300.941      9.145     94.091      0.017
   234.000    302.396     10.431     79.922      0.045
   234.250    301.250     14.465    101.098      0.080
   234.500    300.850     15.491     88.174      0.091
   234.750    300.167     16.682     95.962      0.054
   235.000    301.263     10.226     96.562      0.051
   235.250    300.586     16.405    108.593      0.032
   235.500    300.408     11.892     69.488      0.032
   235.750    300.555     15.376     89.025      0.043
   236.000    301.802     17.864    101.347      0.036
   236.250    301.839     16.649    104.601      0.041
   236.500    300.815     14.814     75.780      0.058
   236.750    300.837     14.951     86.133      0.080
   237.000    302.500      9.878     86.841      0.085
   237.250    302.230      5.912     76.977      0.069
   237.500    300.725     -0.868     73.891      0.063
   237.750    300.493     13.058     75.210      0.039
   238.000    301.814     10.737     59.647      0.039
   238.250    301.472      8.026     55.554      0.050
   238.500    301.023     10.402     65.689      0.027
   238.750    300.752     13.299     96.180      0.037
   239.000    301.663     12.816     81.885      0.058
   239.250    301.647     10.427     63.956      0.076
   239.500    301.072     13.198     56.055      0.079
   239.750    300.742     11.430     67.450      0.049
   240.000    301.633     11.533     74.743      0.044
   240.250    301.687      8.790     80.755      0.042
   240.500    301.061      8.867     76.740      0.041
   240.750    300.686      2.811     73.235      0.045
   241.000    301.562     13.332     65.286      0.027
   241.250    301.134     11.253     58.700      0.015
   241.500    301.035     12.303     81.157      0.036
   241.750    301.010     14.096     95.128      0.048
   242.000    301.801     14.065     90.015      0.060
   242.250    300.708     19.558     82.652      0.074
   242.500    300.920     12.875     81.009      0.021
   242.750    300.829     11.577     73.075      0.013
   243.000    301.842     41.065     90.273      0.005
   243.250    301.643     16.154     83.474      0.005
   243.500    300.943      2.525     27.371      0.002
   243.750    301.000      8.790     59.364      0.002
   244.000    301.961     16.663     55.663      0.002
   244.250    301.886     13.615     85.051      0.024
   244.500    301.231     11.504     71.746      0.058
   244.750    301.040     12.616     93.412      0.072
   245.000    302.102     15.040    110.063      0.060
   245.250    301.888     11.048    102.549      0.029
   245.500    301.300     10.781     83.909      0.020
   245.750    301.372     11.073     66.694      0.013
   246.000    301.489     22.232     82.469      0.017
   246.250    300.812      7.278     69.303      0.002
   246.500    301.221     15.572     63.754      0.013
   246.750    300.687     20.641     80.813      0.013
   247.000    301.812     16.226     84.029      0.014
   247.250    302.338     13.394     96.310      0.029
   247.500    302.218     15.461     96.244      0.016
   247.750    301.487     13.128     85.841      0.041
   248.000    301.400     10.941    124.314      0.034
   248.250    300.683     11.113     92.554      0.038
   248.500    300.700     10.131    130.173      0.038
   248.750    299.950      6.562    106.326      0.028
   249.000    301.175      8.419    111.558      0.021
   249.250    300.750      4.632     92.513      0.012
   249.500    300.425      9.315     92.776      0.017
   249.750    300.550      9.063     92.683      0.016
   250.000    301.917      4.169     97.814      0.013
   250.250    300.250      2.220     86.009      0.018
   250.500    299.650     11.395    112.543      0.030
   250.750    299.867     12.589    108.232      0.020
   251.000    300.550     15.296    119.468      0.026
   251.250    299.633      6.458     88.244      0.015
   251.500    299.333      5.444     58.162      0.004
   251.750    299.400      6.719     94.501      0.022
   252.000    302.000      5.906    115.136      0.023
   252.250    301.600      3.143     88.307      0.010
   252.500    300.750      8.842    104.386      0.033
   252.750    300.700      8.800    127.172      0.023
   253.000    302.183      3.438     97.305      0.018
   253.250    301.375      2.962     81.805      0.019
   253.500    300.900      7.361     85.609      0.016
   253.750    300.367      6.706    100.794      0.015
   254.000    300.833      6.575     54.633      0.002
   254.250    300.600      5.913     76.516      0.014
   254.500    299.567     10.006     82.886      0.005
   254.750    300.200      9.057     90.646      0.011
   255.000    301.400      6.295     91.950      0.019
   255.250    301.450     11.122    128.661      0.024
   255.500    299.550      4.445     46.477      0.001
   255.750    299.050      7.283     81.984      0.019
   256.000    302.050      5.026     53.711      0.004
   256.250    300.950      4.107     71.437      0.009
   256.500    300.950      3.251     40.320      0.003
   256.750    300.325      6.849     72.302      0.015
   257.000    301.850      5.756     99.646      0.019
   257.250    302.250      3.269     91.063      0.018
   257.500    299.850      6.945     71.975      0.006
